 Wavelength (A)     Ref (cm-2s-1)    A
    0.50     1.00     0.000e+00   0.000e+00
    1.00     2.00     1.000e-01   4.166e+01
    2.00     4.00     5.000e+01   4.992e+00
    4.00     8.00     1.000e+04   6.583e-01
    8.00    18.00     2.000e+06   2.000e-01
   18.00    23.00     1.800e+06   1.704e-01
   23.00    32.00     1.340e+07   7.102e-02
   32.00    44.00     7.600e+06   9.605e-02
   44.00    60.00     2.479e+08   1.597e-02
   60.00    70.00     2.394e+08   1.002e-02
   70.00    80.00     2.482e+08   1.002e-02
   80.00    90.00     2.056e+08   1.002e-02
   90.00   100.00     2.942e+08   1.002e-02
  100.00   110.00     1.033e+08   7.125e-03
  110.00   120.00     7.121e+07   7.125e-03
  120.00   130.00     5.316e+07   7.125e-03
  130.00   140.00     3.544e+07   7.125e-03
  140.00   150.00     1.869e+08   7.125e-03
  150.00   160.00     1.590e+08   1.338e-02
  160.00   170.00     3.445e+08   1.338e-02
  170.00   180.00     2.205e+09   1.337e-02
  180.00   190.00     1.162e+09   1.337e-02
  190.00   200.00     9.299e+08   1.338e-02
  200.00   210.00     4.767e+08   1.945e-02
  210.00   220.00     3.102e+08   1.945e-02
  220.00   230.00     8.016e+08   1.945e-02
  230.00   240.00     4.428e+08   1.945e-02
  240.00   250.00     1.069e+09   1.945e-02
  250.00   260.00     1.290e+09   1.802e-02
  260.00   270.00     1.589e+08   2.647e-02
  270.00   280.00     4.115e+08   2.647e-02
  280.00   290.00     2.654e+08   1.145e-01
  290.00   300.00     2.231e+08   2.647e-02
  300.00   310.00     7.700e+09   5.584e-03
  310.00   320.00     4.566e+08   2.245e-02
  320.00   330.00     5.237e+06   2.245e-02
  330.00   340.00     3.788e+07   2.245e-02
  340.00   350.00     4.653e+08   2.245e-02
  350.00   360.00     1.531e+08   3.654e-02
  360.00   370.00     7.878e+08   1.183e-02
  370.00   380.00     0.000e+00   0.000e+00
  380.00   390.00     0.000e+00   0.000e+00
  390.00   400.00     2.309e+07   3.654e-02
  400.00   410.00     1.747e+08   7.408e-03
  410.00   420.00     8.585e+06   7.408e-03
  420.00   430.00     0.000e+00   0.000e+00
  430.00   440.00     1.997e+08   7.408e-03
  440.00   450.00     0.000e+00   0.000e+00
  450.00   460.00     8.812e+06   2.022e-02
  460.00   470.00     3.084e+08   8.251e-03
  470.00   480.00     3.138e+07   2.023e-02
  480.00   490.00     6.295e+07   2.023e-02
  490.00   500.00     1.635e+08   2.022e-02
  500.00   510.00     1.303e+08   8.758e-03
  510.00   520.00     3.045e+07   8.758e-03
  520.00   530.00     1.011e+08   8.758e-03
  530.00   540.00     1.691e+08   8.758e-03
  540.00   550.00     2.109e+07   8.758e-03
  550.00   560.00     9.615e+08   3.365e-03
  560.00   570.00     3.650e+07   3.658e-03
  570.00   580.00     1.882e+07   3.658e-03
  580.00   590.00     1.273e+09   5.155e-03
  590.00   600.00     5.716e+07   3.658e-03
  600.00   610.00     5.300e+08   1.617e-02
  610.00   620.00     3.271e+07   1.180e-02
  620.00   630.00     1.786e+09   4.255e-03
  630.00   640.00     4.877e+07   1.180e-02
  640.00   650.00     6.464e+07   1.180e-02
  650.00   660.00     2.266e+07   4.267e-03
  660.00   670.00     6.444e+06   4.267e-03
  670.00   680.00     1.102e+07   4.267e-03
  680.00   690.00     1.447e+08   4.267e-03
  690.00   700.00     4.521e+07   4.267e-03
  700.00   710.00     4.621e+08   3.419e-03
  710.00   720.00     2.032e+07   4.750e-03
  720.00   730.00     4.719e+06   4.750e-03
  730.00   740.00     6.140e+06   4.750e-03
  740.00   750.00     7.764e+06   4.750e-03
  750.00   760.00     1.228e+08   4.767e-03
  760.00   770.00     3.411e+08   4.310e-03
  770.00   780.00     3.171e+08   1.136e-02
  780.00   790.00     1.015e+09   3.735e-03
  790.00   800.00     9.393e+07   4.767e-03
  800.00   810.00     1.199e+08   4.817e-03
  810.00   820.00     1.541e+08   4.817e-03
  820.00   830.00     1.983e+08   4.817e-03
  830.00   840.00     8.250e+08   4.817e-03
  840.00   850.00     3.276e+08   4.817e-03
  850.00   860.00     4.030e+08   5.675e-03
  860.00   870.00     5.174e+08   5.675e-03
  870.00   880.00     6.648e+08   5.675e-03
  880.00   890.00     8.545e+08   5.675e-03
  890.00   900.00     1.097e+09   5.675e-03
  900.00   910.00     1.264e+09   4.983e-03
  910.00   920.00     8.412e+08   4.983e-03
  920.00   930.00     2.682e+08   4.983e-03
  930.00   940.00     3.117e+08   4.983e-03
  940.00   950.00     3.149e+08   4.983e-03
  950.00   960.00     4.256e+07   4.417e-03
  960.00   970.00     5.094e+07   4.417e-03
  970.00   980.00     5.145e+09   4.010e-03
  980.00   990.00     2.319e+08   4.417e-03
  990.00  1000.00     4.049e+08   4.417e-03
 1000.00  1010.00     8.641e+07   4.375e-03
 1010.00  1020.00     1.614e+08   4.375e-03
 1020.00  1030.00     3.624e+09   5.156e-03
 1030.00  1040.00     4.018e+09   4.850e-03
 1040.00  1050.00     1.773e+08   4.375e-03
 1050.00  1100.00     3.298e+09   3.019e-03
 1100.00  1150.00     3.200e+09   2.097e-03
 1150.00  1210.00     1.625e+10   3.693e-03
 1210.00  1220.00     3.938e+11   4.244e-03
 1220.00  1250.00     7.236e+09   2.444e-03
 1250.00  1300.00     7.791e+09   2.605e-03
 1300.00  1350.00     2.663e+10   2.863e-03
 1350.00  1400.00     1.388e+10   2.633e-03
 1400.00  1450.00     1.826e+10   1.861e-03
 1450.00  1500.00     2.803e+10   1.199e-03
 1500.00  1550.00     5.087e+10   1.522e-03
 1550.00  1600.00     7.263e+10   1.120e-03
 1600.00  1650.00     1.055e+11   1.036e-03
 1650.00  1700.00     1.997e+11   6.127e-04
 1700.00  1750.00     3.396e+11   5.921e-04
